
																																																																																																																																																																																																								
Interferometer Scan																																																																																																																																																																																																								
Thursday, February 04, 2016	4:56:25 PM																																																																																																																																																																																																							
X position (cm)																																																																																																																																																																																																								
0.000000																																																																																																																																																																																																								
Y position (cm)																																																																																																																																																																																																								
0.000000																																																																																																																																																																																																								
Interferometer Positions (um)																																																																																																																																																																																																								
45956.791500	45939.741750	45943.742250	45954.791250	45947.266500	45963.363750	45913.595625	45975.412875	45918.120000	45969.888375	45973.412625	45988.462125	45957.791625	45955.315125	45942.218250	45908.071125	45925.644750	45968.888250	45915.119625	45930.169125	45965.364000	45965.364000	45967.364250	45978.937125	45927.645000	45980.937375	45917.119875	45935.693625	45993.986625	45936.217500	45953.791125	45910.595250	45958.315500	45949.266750	45921.120375	45921.120375	45975.889125	45970.364625	45934.217250	45943.218375	45900.546375	45927.168750	45950.790750	45977.937000	45995.986875	45954.315000	45948.790500	45902.022750	45947.742750	45968.364375	45968.364375	45905.070750	45964.840125	45970.888500	45907.071000	45911.071500	45933.693375	45929.692875	45951.790875	45917.596125	45945.742500	45946.742625	45940.741875	45926.644875	45926.644875	45961.839750	45924.168375	45901.546500	45903.546750	45904.023000	45930.693000	45916.119750	45966.364125	45907.547250	45931.693125	45996.987000	45920.120250	45909.595125	45966.840375	45979.413375	45906.547125	45934.693500	45946.266375	45976.889250	45995.510625	45910.071375	45919.644000	45959.839500	45985.938000	45997.510875	45942.742125	45982.413750	45980.413500	45904.546875	45990.986250	45993.510375	45909.071250	45928.645125	45945.266250	45924.644625	45932.169375	45961.315875	45964.363875	45952.267125	45940.218000	45901.022625	45923.120625	45991.986375	45990.462375	45912.071625	45956.315250	45958.839375	45971.888625	45996.510750	45984.937875	45965.840250	45913.071750	45981.937500	45978.413250	45923.644500	45905.547000	45925.168500	45914.595750	45999.034875	45974.412750	45988.986000	45919.120125	45994.986750	45987.462000	45992.462625	45937.217625	46000.035000	45976.413000	45944.742375	45972.888750	45931.169250	45979.937250	45955.791375	45962.316000	45963.840000	45986.938125	45987.985875	45967.840500	45918.596250	45949.790625	45971.364750	45985.461750	45922.644375	45957.315375	45906.070875	45903.022875	45948.266625	45992.986500	45983.937750	45969.364500	45932.693250	45916.596000	45986.461875	45960.315750	45981.413625	45962.839875	45999.511125	45936.693750	45935.217375	45991.462500	45952.791000	45952.791000	45953.267250	45939.217875	45960.839625	45926.168625	45983.461500	45922.120500	45941.218125	45911.595375	45973.888875	45994.510500	45900.022500	45998.034750	45998.034750	45974.889000	45984.461625	45929.169000	45941.742000	45902.546625	45915.595875	45921.644250	45933.169500	45937.693875	45989.986125	45950.266875	45951.267000	45972.364875	45928.168875	45938.694000	45944.266125	45938.217750	45912.595500	45977.413125	45989.462250	45950.028750
Fringe Signal																																																																																																																																																																																																								
1317.412365	420.937632	751.842133	1382.697409	1151.120980	697.602924	19.391110	74.585915	23.615656	222.317193	117.345748	14.590467	1203.084077	1333.514033	640.670738	15.250264	28.805178	304.263669	18.335276	56.327719	562.414269	562.199070	406.233153	40.470728	36.076792	27.717522	21.927520	135.053133	13.791713	176.917914	1378.371329	16.894923	1233.879214	1285.213634	26.498510	26.472914	73.678339	219.918919	124.820063	620.243089	13.961509	35.967883	1329.454179	52.509035	13.597674	1449.318144	1211.690556	14.392142	998.502528	349.642882	346.387605	14.230063	642.884329	234.988143	15.683819	17.026047	79.834511	47.272385	1374.987432	22.342599	774.538598	891.978008	439.488908	34.161456	34.625427	996.260425	24.538191	14.281603	14.874211	14.855917	47.914403	21.058145	553.236218	15.617006	62.387303	14.284374	24.743620	15.809553	508.924398	43.977256	14.158544	103.740741	859.066879	75.195790	13.786845	15.588007	20.485816	1211.781330	17.156384	13.870256	553.845274	24.502944	32.092249	14.143809	14.397198	13.888703	15.462277	38.099843	729.735257	31.049670	68.316109	1079.225446	760.654285	1353.302063	337.890240	14.675544	27.298247	13.859507	14.103816	17.160383	1364.582811	1332.098189	218.800282	13.701350	17.104848	544.785346	18.969680	26.542167	44.770197	28.330832	15.472890	26.733996	18.992028	13.979601	109.196235	14.713858	21.940330	14.402852	15.786988	13.917718	185.974215	13.821847	63.418644	755.935197	167.257403	59.850036	34.621223	1431.798437	942.560770	851.155615	15.788590	15.566687	380.968282	22.966298	1125.103232	246.630659	18.575547	22.326232	1410.021368	14.833935	14.309596	1027.825085	13.893260	19.204525	304.940287	68.154203	20.998932	17.348008	1116.439817	31.924586	810.618739	13.786998	151.672351	111.373158	14.094079	1344.679328	1350.888753	1352.894070	297.134737	1135.422029	31.024029	24.405534	24.774896	333.425156	17.142061	148.085530	13.895753	14.784590	13.978781	13.402346	99.034714	20.273811	40.439299	415.348082	14.481911	18.703938	24.538201	75.680470	158.376560	14.350509	1251.839526	1269.058261	203.445982	30.949291	219.922219	578.038862	241.249882	18.823554	62.730960	14.851404	1189.927489
Laser Intensity Signal																																																																																																																																																																																																								
3156553.701786	3221799.887176	3157704.542781	3284704.352010	3154640.030925	3300037.999985	3299828.031816	3163264.354877	3293645.629030	3102329.978225	3228334.645576	3161375.436964	3293610.702275	3096276.436255	3285489.654170	3153779.739853	3234188.975145	3592750.904115	3749233.771151	3176372.874772	3291405.123584	3231399.574241	3162122.177741	3162020.140810	3227165.542318	3222328.998625	3161374.457856	3163539.780403	3226347.164140	3221561.828966	3164814.169866	3225544.754463	3227917.986038	3229490.552504	3220447.955517	3160629.436744	3291667.841679	3167202.911191	3289868.213944	3163920.081879	3294906.229719	3157355.106140	3287289.371034	3156560.967107	3222119.807713	3163986.697912	3287926.249882	3187776.078479	3285306.591150	3557547.231150	3788274.672599	3583800.163697	3632221.936681	3119964.623995	3287918.782710	3165136.503439	3292368.106947	3156138.997842	3223874.657321	3098694.044877	3162664.608727	3291412.800471	3156266.095739	3228526.486487	3225107.749929	3227946.423419	3226689.984266	3167417.894175	3228562.452644	3162463.869338	3160319.153930	3224684.049203	3224706.112553	3226964.182958	3226963.245793	3227347.931628	3229437.210132	3221575.456522	3164121.232835	3155565.654835	3221980.921201	3221119.124111	3225809.147658	3164786.091622	3156699.645215	3221558.136668	3222677.056389	3221697.396736	3222237.992714	3220033.453425	3223295.423939	3158953.000960	3224351.974359	3226967.761224	3226092.531876	3227384.263475	3230801.289544	3230925.835469	3224932.644291	3225963.707761	3226021.577359	3163318.578053	3226107.247329	3223629.027082	3221884.377498	3224988.006482	3221349.906514	3222116.840243	3228259.395830	3228288.862126	3228218.952253	3225976.331305	3226286.254981	3223617.121812	3227745.120420	3222359.609180	3162856.545321	3162065.641144	3222108.130509	3222045.740237	3223712.607764	3227708.830515	3224681.223291	3219325.461463	3224450.748908	3223356.717138	3218579.971113	3161406.389617	3221741.515571	3159594.236641	3221186.521334	3158143.471452	3222472.530330	3161193.334702	3222616.240292	3225425.059512	3225813.511045	3234814.056202	3234511.333622	3231363.267297	3166775.215391	3226743.102505	3226950.092718	3157568.138772	3162374.845235	3155077.194056	3222662.798377	3225449.049620	3166735.269888	3227111.680901	3229287.120896	3226013.251666	3223811.344302	3227136.184812	3161050.091356	3224427.745772	3226026.704896	3220530.543985	3225729.082327	3225990.451692	3224945.557504	3221875.306004	3222138.451395	3218319.871836	3219499.492311	3225393.329603	3222610.121851	3218827.891180	3223351.373332	3220995.491758	3156715.638620	3218744.302633	3224420.483072	3155187.894845	3292200.476344	3163881.356657	3292087.502766	3162523.157135	3295065.444188	3161188.462756	3223042.730230	3162341.577851	3293272.406753	3225917.647749	3159672.409293	3289227.359683	3089441.743176	3223211.834081	3090655.008522	3224835.454403	3159506.392187	3289468.311962	3159800.728781	3227019.767972	3161044.271759	3292105.825321	3093702.187418	3286049.640940	3160284.044984	3291101.576561	3289803.701617
Gaussian Fit																																																																																																																																																																																																								
Amplitude   dAmplitude   Center   dCenter   Width   dWidth																																																																																																																																																																																																								
1388.350523	8.967524	45954.429341	0.063497	8.433039	0.062826																																																																																																																																																																																																			
